##TITLE=test
##JCAMP-DX=4.24
##DATA TYPE=NMR SPECTRUM
##ORIGIN=Generated spectrum using convert-to-jcamp
##OWNER=convert-to-jcamp
##XUNITS=d (ppm)
##YUNITS=relative abundance
##FIRSTX=-1
##LASTX=9
##FIRSTY=0
##LASTY=1000
##NPOINTS=1001

##.OBSERVE NUCLEUS= ^1H
##PEAK TABLE=(XY..XY)
-1 0
-0.99 0
-0.98 0
-0.97 0
-0.96 0
-0.95 0
-0.94 0
-0.9299999999999999 0
-0.92 0
-0.91 0
-0.9 0
-0.89 0
-0.88 0
-0.87 0
-0.86 0
-0.85 0
-0.84 0
-0.83 0
-0.820 0
-0.81 0
-0.8 0
-0.79 0
-0.78 0
-0.77 0
-0.76 0
-0.75 0
-0.74 0
-0.73 0
-0.72 0
-0.71 0
-0.7 0
-0.69 0
-0.6799999999999999 0
-0.6699999999999999 0
-0.6599999999999999 0
-0.6499999999999999 0
-0.64 0
-0.63 0
-0.62 0
-0.61 0
-0.6 0
-0.59 0
-0.580 0
-0.570 0
-0.56 0
-0.55 0
-0.54 0
-0.53 0
-0.52 0
-0.51 0
-0.5 0
-0.49 0
-0.48 0
-0.47 0
-0.45999999999999996 0
-0.44999999999999996 0
-0.43999999999999995 0
-0.42999999999999994 0
-0.42000000000000004 0
-0.41000000000000003 0
-0.4 0
-0.39 0
-0.38 0
-0.37 0
-0.36 0
-0.35 0
-0.33999999999999997 0
-0.32999999999999996 0
-0.31999999999999995 0
-0.30999999999999994 0
-0.29999999999999993 0
-0.29000000000000004 0
-0.28 0
-0.27 0
-0.26 0
-0.25 0
-0.24 0
-0.22999999999999998 0
-0.21999999999999997 0
-0.20999999999999996 0
-0.19999999999999996 0
-0.18999999999999995 0
-0.17999999999999994 0
-0.16999999999999993 0
-0.16000000000000003 0
-0.15000000000000002 0
-0.14 0
-0.13 0
-0.12 0
-0.10999999999999999 0
-0.09999999999999998 0
-0.08999999999999997 0
-0.07999999999999996 0
-0.06999999999999995 0
-0.05999999999999994 0
-0.04999999999999993 0
-0.040000000000000036 0
-0.030000000000000027 0
-0.02008 0
-0.010000000000000009 500
0 1000
0.010000000000000009 500
0.02008 0
0.030000000000000027 0
0.040000000000000036 0
0.050000000000000044 0
0.06000000000000005 0
0.07000000000000006 0
0.08000000000000007 0
0.09000000000000008 0
0.10000000000000009 0
0.110 0
0.120 0
0.1302 0
0.1402 0
0.1503 0
0.15999999999999992 0
0.16999999999999993 0
0.17999999999999994 0
0.18999999999999995 0
0.19999999999999996 0
0.20999999999999996 0
0.21999999999999997 0
0.22999999999999998 0
0.24 0
0.25 0
0.26 0
0.27 0
0.28 0
0.29000000000000004 0
0.30000000000000004 0
0.31000000000000005 0
0.32000000000000006 0
0.33000000000000007 0
0.340 0
0.350 0
0.360 0
0.370 0
0.380 0
0.390 0
0.4003 0
0.4099999999999999 0
0.41999999999999993 0
0.42999999999999994 0
0.43999999999999995 0
0.44999999999999996 0
0.45999999999999996 0
0.47 0
0.48 0
0.49 0
0.5 0
0.51 0
0.52 0
0.53 0
0.54 0
0.55 0
0.56 0
0.570 0
0.580 0
0.590 0
0.600 0
0.610 0
0.620 0
0.630 0
0.640 0
0.650 0
0.660 0
0.6699999999999999 0
0.6799999999999999 0
0.69 0
0.7 0
0.71 0
0.72 0
0.73 0
0.74 0
0.75 0
0.76 0
0.77 0
0.78 0
0.79 0
0.8 0
0.81 0
0.820 0
0.830 0
0.840 0
0.850 0
0.860 0
0.870 0
0.880 0
0.890 0
0.900 0
0.910 0
0.9199999999999999 0
0.9299999999999999 0
0.94 0
0.95 0
0.96 0
0.97 0
0.98 0
0.99 500
1 1000
1.0100000000000002 500
1.02 0
1.0300000000000002 0
1.04 0
1.0499999999999998 0
1.06 0
1.0699999999999998 0
1.08 0
1.0899999999999999 0
1.1 0
1.1099999999999999 0
1.12 0
1.13 0
1.140 0
1.15 0
1.160 0
1.17 0
1.1800000000000002 0
1.19 0
1.2000000000000002 0
1.21 0
1.2200000000000002 0
1.23 0
1.2400000000000002 0
1.25 0
1.2600000000000002 0
1.27 0
1.2800000000000002 0
1.29 0
1.3000000000000003 0
1.31 0
1.3199999999999998 0
1.33 0
1.3399999999999999 0
1.35 0
1.3599999999999999 0
1.37 0
1.38 0
1.390 0
1.4 0
1.410 0
1.42 0
1.4300000000000002 0
1.44 0
1.4500000000000002 0
1.46 0
1.4700000000000002 0
1.48 0
1.4900000000000002 0
1.5 0
1.5100000000000002 0
1.52 0
1.5300000000000002 0
1.54 0
1.5500000000000003 0
1.56 0
1.5699999999999998 0
1.58 0
1.5899999999999999 0
1.6 0
1.6099999999999999 0
1.62 0
1.63 0
1.640 0
1.65 0
1.660 0
1.67 0
1.6800000000000002 0
1.69 0
1.7000000000000002 0
1.71 0
1.7200000000000002 0
1.73 0
1.7400000000000002 0
1.75 0
1.7600000000000002 0
1.77 0
1.7800000000000002 0
1.79 0
1.8000000000000003 0
1.81 0
1.8199999999999998 0
1.83 0
1.8399999999999999 0
1.85 0
1.8599999999999999 0
1.87 0
1.88 0
1.890 0
1.9 0
1.910 0
1.92 0
1.9300000000000002 0
1.94 0
1.9500000000000002 0
1.96 0
1.9700000000000002 0
1.98 0
1.9900000000000002 500
2 1000
2.0100000000000002 500
2.02 0
2.0300000000000002 0
2.04 0
2.0500000000000003 0
2.06 0
2.0700000000000003 0
2.08 0
2.09 0
2.1 0
2.11 0
2.12 0
2.13 0
2.14 0
2.15 0
2.16 0
2.17 0
2.18 0
2.19 0
2.2 0
2.21 0
2.22 0
2.23 0
2.24 0
2.25 0
2.2600000000000002 0
2.27 0
2.2800000000000002 0
2.29 0
2.3000000000000003 0
2.31 0
2.3200000000000003 0
2.33 0
2.34 0
2.35 0
2.36 0
2.37 0
2.38 0
2.39 0
2.4 0
2.41 0
2.42 0
2.43 0
2.44 0
2.45 0
2.46 0
2.47 0
2.48 0
2.49 0
2.5 0
2.5100000000000002 0
2.52 0
2.5300000000000002 0
2.54 0
2.5500000000000003 0
2.56 0
2.5700000000000003 0
2.58 0
2.59 0
2.6 0
2.61 0
2.62 0
2.63 0
2.64 0
2.65 0
2.66 0
2.67 0
2.68 0
2.69 0
2.7 0
2.71 0
2.72 0
2.73 0
2.74 0
2.75 0
2.7600000000000002 0
2.77 0
2.7800000000000002 0
2.79 0
2.8000000000000003 0
2.81 0
2.8200000000000003 0
2.83 0
2.84 0
2.85 0
2.86 0
2.87 0
2.88 0
2.89 0
2.9 0
2.91 0
2.92 0
2.93 0
2.94 0
2.95 0
2.96 0
2.97 0
2.98 0
2.99 500
3 1000
3.01 500
3.0200000000000005 0
3.0300000000000002 0
3.04 0
3.05 0
3.0600000000000005 0
3.0700000000000003 0
3.08 0
3.09 0
3.0999999999999996 0
3.1100000000000003 0
3.12 0
3.13 0
3.1399999999999997 0
3.1500000000000004 0
3.16 0
3.17 0
3.1799999999999997 0
3.1900000000000004 0
3.2 0
3.21 0
3.2199999999999998 0
3.2300000000000004 0
3.24 0
3.25 0
3.26 0
3.2700000000000005 0
3.2800000000000002 0
3.29 0
3.3 0
3.3100000000000005 0
3.3200000000000003 0
3.33 0
3.34 0
3.3500000000000005 0
3.3600000000000003 0
3.37 0
3.38 0
3.3899999999999997 0
3.4000000000000004 0
3.41 0
3.42 0
3.4299999999999997 0
3.4400000000000004 0
3.45 0
3.46 0
3.4699999999999998 0
3.4800000000000004 0
3.49 0
3.5 0
3.51 0
3.5200000000000005 0
3.5300000000000002 0
3.54 0
3.55 0
3.5600000000000005 0
3.5700000000000003 0
3.58 0
3.59 0
3.6000000000000005 0
3.6100000000000003 0
3.62 0
3.63 0
3.6399999999999997 0
3.6500000000000004 0
3.66 0
3.67 0
3.6799999999999997 0
3.6900000000000004 0
3.7 0
3.71 0
3.7199999999999998 0
3.7300000000000004 0
3.74 0
3.75 0
3.76 0
3.7700000000000005 0
3.7800000000000002 0
3.79 0
3.8 0
3.8100000000000005 0
3.8200000000000003 0
3.83 0
3.84 0
3.8500000000000005 0
3.8600000000000003 0
3.87 0
3.88 0
3.8899999999999997 0
3.9000000000000004 0
3.91 0
3.92 0
3.9299999999999997 0
3.9400000000000004 0
3.95 0
3.96 0
3.9699999999999998 0
3.9800000000000004 0
3.99 500
4 1000
4.01 500
4.0200000000000005 0
4.03 0
4.04 0
4.05 0
4.0600000000000005 0
4.07 0
4.08 0
4.09 0
4.1000000000000005 0
4.11 0
4.12 0
4.13 0
4.14 0
4.15 0
4.16 0
4.17 0
4.18 0
4.19 0
4.2 0
4.21 0
4.22 0
4.23 0
4.24 0
4.25 0
4.26 0
4.2700000000000005 0
4.28 0
4.29 0
4.3 0
4.3100000000000005 0
4.32 0
4.33 0
4.34 0
4.3500000000000005 0
4.36 0
4.37 0
4.38 0
4.39 0
4.4 0
4.41 0
4.42 0
4.43 0
4.44 0
4.45 0
4.46 0
4.47 0
4.48 0
4.49 0
4.5 0
4.51 0
4.5200000000000005 0
4.53 0
4.54 0
4.55 0
4.5600000000000005 0
4.57 0
4.58 0
4.59 0
4.6000000000000005 0
4.61 0
4.62 0
4.63 0
4.64 0
4.65 0
4.66 0
4.67 0
4.68 0
4.69 0
4.7 0
4.71 0
4.72 0
4.73 0
4.74 0
4.75 0
4.76 0
4.7700000000000005 0
4.78 0
4.79 0
4.8 0
4.8100000000000005 0
4.82 0
4.83 0
4.84 0
4.8500000000000005 0
4.86 0
4.87 0
4.88 0
4.89 0
4.9 0
4.91 0
4.92 0
4.93 0
4.94 0
4.95 0
4.96 0
4.97 0
4.98 0
4.99 500
5 1000
5.01 500
5.0200000000000005 0
5.03 0
5.04 0
5.05 0
5.0600000000000005 0
5.07 0
5.08 0
5.09 0
5.1000000000000005 0
5.11 0
5.12 0
5.13 0
5.14 0
5.15 0
5.16 0
5.17 0
5.18 0
5.19 0
5.2 0
5.21 0
5.22 0
5.23 0
5.24 0
5.25 0
5.26 0
5.2700000000000005 0
5.28 0
5.29 0
5.3 0
5.3100000000000005 0
5.32 0
5.33 0
5.34 0
5.3500000000000005 0
5.36 0
5.37 0
5.38 0
5.39 0
5.4 0
5.41 0
5.42 0
5.43 0
5.44 0
5.45 0
5.46 0
5.47 0
5.48 0
5.49 0
5.5 0
5.51 0
5.5200000000000005 0
5.53 0
5.54 0
5.55 0
5.5600000000000005 0
5.57 0
5.58 0
5.59 0
5.6000000000000005 0
5.61 0
5.62 0
5.63 0
5.64 0
5.65 0
5.66 0
5.67 0
5.68 0
5.69 0
5.7 0
5.71 0
5.72 0
5.73 0
5.74 0
5.75 0
5.76 0
5.7700000000000005 0
5.78 0
5.79 0
5.8 0
5.8100000000000005 0
5.82 0
5.83 0
5.84 0
5.8500000000000005 0
5.86 0
5.87 0
5.88 0
5.89 0
5.9 0
5.91 0
5.92 0
5.93 0
5.94 0
5.95 0
5.96 0
5.97 0
5.98 0
5.99 500
6 1000
6.01 500
6.0200000000000005 0
6.03 0
6.04 0
6.05 0
6.0600000000000005 0
6.07 0
6.08 0
6.09 0
6.1000000000000005 0
6.11 0
6.12 0
6.13 0
6.14 0
6.15 0
6.16 0
6.17 0
6.18 0
6.19 0
6.2 0
6.21 0
6.22 0
6.23 0
6.24 0
6.25 0
6.26 0
6.2700000000000005 0
6.28 0
6.29 0
6.3 0
6.3100000000000005 0
6.32 0
6.33 0
6.34 0
6.3500000000000005 0
6.36 0
6.37 0
6.38 0
6.39 0
6.4 0
6.41 0
6.42 0
6.43 0
6.44 0
6.45 0
6.46 0
6.47 0
6.48 0
6.49 0
6.5 0
6.51 0
6.5200000000000005 0
6.53 0
6.54 0
6.55 0
6.5600000000000005 0
6.57 0
6.58 0
6.59 0
6.6000000000000005 0
6.61 0
6.62 0
6.63 0
6.64 0
6.65 0
6.66 0
6.67 0
6.68 0
6.69 0
6.7 0
6.71 0
6.72 0
6.73 0
6.74 0
6.75 0
6.76 0
6.7700000000000005 0
6.78 0
6.79 0
6.8 0
6.8100000000000005 0
6.82 0
6.83 0
6.84 0
6.8500000000000005 0
6.86 0
6.87 0
6.88 0
6.89 0
6.9 0
6.91 0
6.92 0
6.93 0
6.94 0
6.95 0
6.96 0
6.97 0
6.98 0
6.99 500
7 1000
7.01 500
7.02 0
7.029999999999999 0
7.04 0
7.05 0
7.0600000000000005 0
7.07 0
7.08 0
7.09 0
7.1 0
7.109999999999999 0
7.12 0
7.13 0
7.14 0
7.15 0
7.16 0
7.17 0
7.18 0
7.1899999999999995 0
7.199999999999999 0
7.21 0
7.22 0
7.23 0
7.24 0
7.25 0
7.26 0
7.27 0
7.279999999999999 0
7.29 0
7.30 0
7.3100000000000005 0
7.32 0
7.33 0
7.34 0
7.35 0
7.359999999999999 0
7.37 0
7.38 0
7.39 0
7.4 0
7.41 0
7.42 0
7.43 0
7.4399999999999995 0
7.449999999999999 0
7.46 0
7.47 0
7.48 0
7.49 0
7.5 0
7.51 0
7.52 0
7.529999999999999 0
7.54 0
7.55 0
7.5600000000000005 0
7.57 0
7.58 0
7.59 0
7.6 0
7.609999999999999 0
7.62 0
7.63 0
7.64 0
7.65 0
7.66 0
7.67 0
7.68 0
7.6899999999999995 0
7.70 0
7.71 0
7.72 0
7.73 0
7.74 0
7.75 0
7.76 0
7.77 0
7.779999999999999 0
7.79 0
7.80 0
7.8100000000000005 0
7.82 0
7.83 0
7.84 0
7.85 0
7.859999999999999 0
7.87 0
7.88 0
7.89 0
7.9 0
7.91 0
7.92 0
7.93 0
7.9399999999999995 0
7.95 0
7.96 0
7.97 0
7.98 0
7.99 500
8 1000
8.01 500
8.02 0
8.03 0
8.04 0
8.05 0
8.06 0
8.07 0
8.08 0
8.09 0
8.1 0
8.11 0
8.12 0
8.13 0
8.14 0
8.15 0
8.16 0
8.17 0
8.18 0
8.19 0
8.20 0
8.21 0
8.22 0
8.23 0
8.24 0
8.25 0
8.26 0
8.27 0
8.28 0
8.29 0
8.3 0
8.31 0
8.32 0
8.33 0
8.34 0
8.35 0
8.36 0
8.37 0
8.38 0
8.39 0
8.4 0
8.41 0
8.42 0
8.43 0
8.44 0
8.45 0
8.46 0
8.47 0
8.48 0
8.49 0
8.5 0
8.51 0
8.52 0
8.53 0
8.54 0
8.55 0
8.56 0
8.57 0
8.58 0
8.59 0
8.6 0
8.61 0
8.62 0
8.63 0
8.64 0
8.65 0
8.66 0
8.67 0
8.68 0
8.69 0
8.70 0
8.71 0
8.72 0
8.73 0
8.74 0
8.75 0
8.76 0
8.77 0
8.78 0
8.79 0
8.8 0
8.81 0
8.82 0
8.83 0
8.84 0
8.85 0
8.86 0
8.87 0
8.88 0
8.89 0
8.9 0
8.91 0
8.92 0
8.93 0
8.94 0
8.95 0
8.96 0
8.97 0
8.98 0
8.99 0
9 0
##END